time (ms)	lx (deg)	ly (deg)	rx (deg)	ry (deg)
0.000	1.76491	1.39763	-0.36969	0.59879
1.000	1.80046	1.38370	-0.34399	0.59879
2.000	1.81033	1.41747	-0.35783	0.59879
3.000	1.85181	1.43334	-0.33806	0.64056
4.000	1.75700	1.39963	-0.35190	0.59680
5.000	1.79256	1.38569	-0.35981	0.60674
6.000	1.80836	1.39959	-0.38353	0.59680
7.000	1.80441	1.43934	-0.37167	0.59481
8.000	1.81823	1.42343	-0.37167	0.58088
9.000	1.82218	1.41349	-0.33806	0.59282
10.000	1.81231	1.42144	-0.35981	0.58088
11.000	1.84983	1.41744	-0.35981	0.61669
12.000	1.82811	1.41944	-0.34795	0.58685
13.000	1.79453	1.45921	-0.38749	0.61271
14.000	1.83206	1.41149	-0.38353	0.58287
15.000	1.82613	1.45522	-0.38551	0.60674
16.000	1.83206	1.40354	-0.36772	0.60276
17.000	1.83601	1.42341	-0.38749	0.59083
18.000	1.81823	1.46317	-0.38156	0.58685
19.000	1.81231	1.42542	-0.37563	0.63658
20.000	1.84391	1.42738	-0.33213	0.60277
21.000	1.83798	1.43732	-0.36574	0.61470
22.000	1.82613	1.39759	-0.36574	0.60475
23.000	1.85576	1.43929	-0.35783	0.56298
24.000	1.84588	1.45122	-0.37167	0.56298
25.000	1.84391	1.44924	-0.36179	0.55502
26.000	1.85181	1.43334	-0.35190	0.58685
27.000	1.83798	1.48303	-0.37563	0.55502
28.000	1.82811	1.42938	-0.41319	0.54309
29.000	1.84391	1.45321	-0.39144	0.54110
30.000	1.88538	1.46510	-0.34004	0.58685
31.000	1.86761	1.41146	-0.40726	0.54508
32.000	1.84588	1.47706	-0.39935	0.53911
33.000	1.83996	1.44328	-0.37563	0.59282
34.000	1.83798	1.42540	-0.36969	0.54309
35.000	1.86563	1.45717	-0.40528	0.53115
36.000	1.80441	1.41748	-0.36969	0.56099
37.000	1.84983	1.38564	-0.40133	0.52319
38.000	1.80836	1.41151	-0.43098	0.51126
39.000	1.83996	1.44726	-0.42307	0.55502
40.000	1.86563	1.44723	-0.38749	0.56497
41.000	1.87156	1.44922	-0.42307	0.55104
42.000	1.84786	1.44129	-0.39342	0.55900
43.000	1.85181	1.42936	-0.39144	0.53911
44.000	1.87946	1.41543	-0.38946	0.58287
45.000	1.84588	1.44129	-0.36179	0.56099
46.000	1.85378	1.44526	-0.38353	0.62067
47.000	1.80441	1.40357	-0.38946	0.63459
48.000	1.78663	1.38967	-0.39737	0.54110
49.000	1.78663	1.37774	-0.38156	0.58884
50.000	1.80836	1.37574	-0.38551	0.54110
51.000	1.73528	1.33207	-0.43493	0.56497
52.000	1.78071	1.36582	-0.41912	0.55502
53.000	1.78071	1.33005	-0.44284	0.52518
54.000	1.80243	1.37972	-0.43098	0.48142
55.000	1.78268	1.40756	-0.43691	0.50330
56.000	1.79453	1.40953	-0.43098	0.51921
57.000	1.80638	1.35388	-0.43098	0.50131
58.000	1.87748	1.41146	-0.41121	0.53115
59.000	1.80046	1.40953	-0.47052	0.45357
60.000	1.86366	1.38166	-0.47052	0.49335
61.000	1.86958	1.41345	-0.43889	0.50927
62.000	1.80638	1.34196	-0.45272	0.50529
63.000	1.84786	1.38763	-0.46261	0.47545
64.000	1.83206	1.37970	-0.43098	0.46352
65.000	1.86958	1.34390	-0.45075	0.52717
66.000	1.86366	1.40948	-0.46063	0.43566
67.000	1.82416	1.33598	-0.45668	0.45954
68.000	1.83403	1.38168	-0.46656	0.49534
69.000	1.83601	1.34194	-0.43691	0.42970
70.000	1.84588	1.35584	-0.44284	0.47744
71.000	1.84391	1.37174	-0.42307	0.46352
72.000	1.88735	1.31010	-0.44086	0.50131
73.000	1.81231	1.33798	-0.40923	0.46551
74.000	1.81231	1.34195	-0.42109	0.55104
75.000	1.82613	1.35387	-0.45865	0.45954
76.000	1.87353	1.39357	-0.44284	0.47545
77.000	1.84588	1.36379	-0.46261	0.50927
78.000	1.82218	1.32605	-0.41516	0.46153
79.000	1.83403	1.34591	-0.46261	0.49932
80.000	1.83206	1.34989	-0.45470	0.48341
81.000	1.83008	1.33995	-0.41121	0.49336
82.000	1.82218	1.35983	-0.44086	0.48540
83.000	1.81231	1.33599	-0.46063	0.50330
84.000	1.79256	1.34793	-0.44284	0.50927
85.000	1.79058	1.35588	-0.39144	0.50330
86.000	1.77281	1.33999	-0.43691	0.49335
87.000	1.82811	1.33995	-0.42505	0.47147
88.000	1.80441	1.33202	-0.41121	0.46551
89.000	1.79848	1.38171	-0.45075	0.48142
90.000	1.81428	1.33003	-0.46854	0.50131
91.000	1.80243	1.34792	-0.45470	0.48738
92.000	1.79848	1.35587	-0.43691	0.51921
93.000	1.80441	1.29824	-0.41912	0.52916
94.000	1.82811	1.32604	-0.41912	0.54905
95.000	1.81626	1.31214	-0.43493	0.50728
96.000	1.86563	1.31806	-0.47842	0.54109
97.000	1.85773	1.35186	-0.41516	0.56895
98.000	1.84193	1.29026	-0.47249	0.51921
99.000	1.86366	1.33595	-0.47842	0.54706
100.000	1.84786	1.29622	-0.47842	0.50926
101.000	1.82613	1.28630	-0.45668	0.54109
102.000	1.89328	1.27035	-0.48238	0.52120
103.000	1.83798	1.28827	-0.47249	0.54706
104.000	1.84391	1.25448	-0.47447	0.53910
105.000	1.86761	1.27235	-0.44877	0.55701
106.000	1.86168	1.26838	-0.46656	0.54308
107.000	1.82811	1.27238	-0.47842	0.55899
108.000	1.84786	1.25846	-0.47052	0.57889
109.000	1.83206	1.25847	-0.46656	0.54308
110.000	1.82811	1.20282	-0.43889	0.57690
111.000	1.86366	1.25447	-0.45668	0.53115
112.000	1.82218	1.23661	-0.45668	0.54507
113.000	1.82218	1.30220	-0.45470	0.50330
114.000	1.80243	1.22271	-0.47052	0.54308
115.000	1.77676	1.23068	-0.49424	0.49932
116.000	1.83403	1.21872	-0.51005	0.50528
117.000	1.81231	1.21674	-0.47249	0.47744
118.000	1.76886	1.22472	-0.53575	0.48937
119.000	1.77281	1.20882	-0.49226	0.48937
120.000	1.80441	1.21476	-0.52191	0.48937
121.000	1.77478	1.23466	-0.46656	0.50330
122.000	1.77676	1.25254	-0.51401	0.49733
123.000	1.79453	1.18893	-0.46854	0.51125
124.000	1.81626	1.21873	-0.49226	0.48937
125.000	1.74910	1.18498	-0.48435	0.50330
126.000	1.79058	1.22073	-0.48040	0.47744
127.000	1.84391	1.24256	-0.44877	0.45954
128.000	1.86168	1.22466	-0.52982	0.48340
129.000	1.78861	1.23465	-0.48435	0.47744
130.000	1.79651	1.24657	-0.49424	0.46749
131.000	1.83798	1.20878	-0.51994	0.41577
132.000	1.84786	1.21274	-0.50808	0.42373
133.000	1.84786	1.23461	-0.49622	0.35609
134.000	1.85181	1.22467	-0.52587	0.39587
135.000	1.86761	1.24850	-0.51598	0.38991
136.000	1.89920	1.24053	-0.58320	0.36404
137.000	1.85971	1.23659	-0.55354	0.35211
138.000	1.87353	1.18490	-0.56738	0.35609
139.000	1.84588	1.24653	-0.53180	0.40980
140.000	1.86958	1.22664	-0.55552	0.38394
141.000	1.84391	1.19287	-0.49819	0.35012
142.000	1.84193	1.17300	-0.50215	0.35211
143.000	1.88933	1.21868	-0.52784	0.34813
144.000	1.86563	1.17696	-0.53180	0.37001
145.000	1.88538	1.20676	-0.45865	0.34814
146.000	1.86168	1.19485	-0.51005	0.43367
147.000	1.92685	1.22660	-0.52982	0.41975
148.000	1.86563	1.13919	-0.51401	0.41975
149.000	1.88143	1.17098	-0.54761	0.42173
150.000	1.84193	1.17101	-0.51005	0.41179
151.000	1.91895	1.17295	-0.49622	0.41378
152.000	1.84983	1.17498	-0.52389	0.46550
153.000	1.85971	1.18491	-0.49226	0.42771
154.000	1.89525	1.23457	-0.54168	0.41577
155.000	1.86168	1.22068	-0.50215	0.48141
156.000	1.89920	1.19681	-0.49819	0.47545
157.000	1.87353	1.17099	-0.52784	0.48340
158.000	1.89525	1.22464	-0.50215	0.45953
159.000	1.93672	1.22262	-0.48040	0.47545
160.000	1.89130	1.19284	-0.48238	0.45158
161.000	1.89328	1.19880	-0.51005	0.46152
162.000	1.87946	1.21073	-0.50412	0.47346
163.000	1.89328	1.19681	-0.51005	0.47147
164.000	1.85576	1.18690	-0.46854	0.45755
165.000	1.82613	1.20481	-0.48238	0.46550
166.000	1.86761	1.18888	-0.49424	0.47943
167.000	1.86761	1.21671	-0.49226	0.47943
168.000	1.90315	1.21072	-0.48831	0.50727
169.000	1.85378	1.19883	-0.49622	0.47943
170.000	1.87156	1.20279	-0.49819	0.47744
171.000	1.90513	1.20078	-0.49424	0.49136
172.000	1.85181	1.17697	-0.49028	0.43964
173.000	1.84786	1.23063	-0.50215	0.46948
174.000	1.89920	1.19681	-0.49819	0.44760
175.000	1.85181	1.17498	-0.51203	0.46550
176.000	1.84786	1.18492	-0.48435	0.43765
177.000	1.84786	1.15908	-0.53180	0.44759
178.000	1.88143	1.15707	-0.51598	0.38394
179.000	1.84588	1.17498	-0.52191	0.39985
180.000	1.81626	1.16705	-0.52784	0.37001
181.000	1.83206	1.13126	-0.52982	0.37399
182.000	1.82416	1.10940	-0.52982	0.36604
183.000	1.86366	1.15708	-0.52191	0.39389
184.000	1.86168	1.21671	-0.53180	0.40781
185.000	1.84786	1.14119	-0.54959	0.35211
186.000	1.87551	1.14714	-0.55750	0.33620
187.000	1.82811	1.18096	-0.54959	0.31431
188.000	1.82811	1.16903	-0.53180	0.33421
189.000	1.85181	1.17498	-0.57331	0.30437
190.000	1.81033	1.17103	-0.53378	0.33421
191.000	1.83008	1.18294	-0.54761	0.35012
192.000	1.80441	1.12134	-0.51598	0.35808
193.000	1.87353	1.15906	-0.51203	0.35410
194.000	1.79848	1.10743	-0.50610	0.35808
195.000	1.82021	1.13723	-0.51598	0.33620
196.000	1.83008	1.14120	-0.50808	0.36206
197.000	1.86168	1.14913	-0.52191	0.37200
198.000	1.85378	1.12727	-0.53378	0.36802
199.000	1.81231	1.13923	-0.54564	0.34614
200.000	1.84391	1.12331	-0.53378	0.34216
201.000	1.82021	1.07562	-0.55552	0.29641
202.000	1.81428	1.13128	-0.52982	0.34018
203.000	1.80046	1.12731	-0.52587	0.34614
204.000	1.84391	1.12529	-0.52587	0.34614
205.000	1.83601	1.08554	-0.53773	0.35012
206.000	1.86168	1.14715	-0.55157	0.32028
207.000	1.87748	1.13720	-0.53378	0.30437
208.000	1.87551	1.10142	-0.51994	0.34216
209.000	1.80243	1.08755	-0.53575	0.29641
210.000	1.86958	1.10938	-0.53971	0.28050
211.000	1.85576	1.09945	-0.50610	0.29044
212.000	1.80638	1.12532	-0.50808	0.33222
213.000	1.85181	1.10939	-0.51796	0.29641
214.000	1.82613	1.11338	-0.53378	0.31034
215.000	1.84786	1.08951	-0.55354	0.34813
216.000	1.80441	1.09749	-0.54959	0.30039
217.000	1.82218	1.10344	-0.54761	0.28646
218.000	1.87946	1.10142	-0.53180	0.28447
219.000	1.80836	1.08357	-0.54168	0.29442
220.000	1.87946	1.10937	-0.52587	0.28448
221.000	1.84193	1.14915	-0.56343	0.31431
222.000	1.85378	1.10740	-0.54564	0.25662
223.000	1.83206	1.09549	-0.52191	0.28050
224.000	1.85576	1.05373	-0.52784	0.24668
225.000	1.85773	1.10541	-0.54761	0.24469
226.000	1.90710	1.09941	-0.52784	0.30437
227.000	1.85378	1.07957	-0.55947	0.25463
228.000	1.91500	1.11928	-0.51994	0.27652
229.000	1.84983	1.12926	-0.50017	0.27851
230.000	1.84983	1.08355	-0.50215	0.25862
231.000	1.91105	1.10935	-0.54168	0.31034
232.000	1.85378	1.13324	-0.48435	0.25265
233.000	1.90710	1.09743	-0.52587	0.24867
234.000	1.91105	1.08749	-0.50610	0.26060
235.000	1.86366	1.08354	-0.53180	0.27453
236.000	1.85576	1.08553	-0.49424	0.22878
237.000	1.83601	1.08554	-0.50610	0.24469
238.000	1.89920	1.09544	-0.50215	0.26657
239.000	1.83996	1.09946	-0.52587	0.23076
240.000	1.88341	1.08949	-0.48633	0.21883
241.000	1.81626	1.11935	-0.50017	0.23275
242.000	1.83008	1.09747	-0.47842	0.21485
243.000	1.84391	1.06368	-0.51598	0.26060
244.000	1.82613	1.09151	-0.50017	0.21883
245.000	1.86366	1.07360	-0.52389	0.28249
246.000	1.85181	1.10144	-0.46261	0.28448
247.000	1.83996	1.05970	-0.50215	0.25663
248.000	1.83798	1.07759	-0.50610	0.21883
249.000	1.84588	1.04777	-0.48633	0.22878
250.000	1.87946	1.05372	-0.43889	0.21485
251.000	1.89130	1.08949	-0.48831	0.24668
252.000	1.87156	1.06763	-0.49622	0.21883
253.000	1.95252	1.09143	-0.45075	0.18700
254.000	1.86761	1.06565	-0.51598	0.23076
255.000	1.90710	1.02786	-0.52587	0.22082
256.000	1.91895	1.06959	-0.54168	0.19694
257.000	1.88538	1.07558	-0.50017	0.21883
258.000	1.87156	1.04179	-0.55552	0.20490
259.000	1.94462	1.08150	-0.50808	0.21684
260.000	1.94265	1.06361	-0.51598	0.16909
261.000	1.91895	1.06363	-0.51005	0.19893
262.000	1.88735	1.02390	-0.48238	0.18700
263.000	1.88341	1.03185	-0.51598	0.18700
264.000	1.88735	1.05967	-0.53575	0.23275
265.000	1.93672	1.01989	-0.47447	0.18700
266.000	1.87551	1.03782	-0.50412	0.22878
267.000	1.89130	1.04178	-0.53773	0.21286
268.000	1.94265	1.02585	-0.51401	0.14920
269.000	1.92290	1.04971	-0.45668	0.19695
270.000	1.95647	1.02783	-0.51598	0.20092
271.000	1.89130	1.01197	-0.50017	0.23673
272.000	1.92685	1.03580	-0.52389	0.16909
273.000	1.95647	1.02187	-0.54564	0.18501
274.000	1.93080	1.01393	-0.52982	0.16909
275.000	1.93870	1.02585	-0.51598	0.22877
276.000	1.95647	1.03975	-0.53378	0.20092
277.000	1.93475	1.01393	-0.53575	0.17506
278.000	1.97227	1.04571	-0.54761	0.20888
279.000	1.93278	1.00002	-0.51598	0.15915
280.000	1.94462	1.03380	-0.52191	0.19098
281.000	1.96832	1.02981	-0.54168	0.16909
282.000	1.97424	0.98608	-0.54366	0.19694
283.000	1.96635	0.98807	-0.53378	0.14522
284.000	2.03151	1.02579	-0.52389	0.18899
285.000	1.99202	1.00594	-0.54959	0.15318
286.000	1.99202	1.01389	-0.54959	0.14721
287.000	1.96437	1.04373	-0.54366	0.15119
288.000	1.93475	0.99008	-0.52784	0.18302
289.000	1.97029	0.99801	-0.57727	0.17307
290.000	1.96240	1.01192	-0.54366	0.19694
291.000	1.98214	1.01788	-0.50412	0.20689
292.000	1.99794	0.99600	-0.55157	0.13329
293.000	2.02361	1.01785	-0.54168	0.15119
294.000	1.99004	0.98806	-0.53180	0.13925
295.000	2.00584	0.97413	-0.55157	0.10544
296.000	1.93672	1.01790	-0.54959	0.12732
297.000	1.99399	0.97016	-0.56738	0.12732
298.000	1.95252	0.94832	-0.53971	0.17904
299.000	1.96240	0.93043	-0.58122	0.12732
300.000	1.97819	0.96620	-0.55947	0.13726
301.000	1.91698	0.93840	-0.57133	0.13925
302.000	1.94067	0.91056	-0.53378	0.12334
303.000	1.93870	0.98014	-0.57529	0.18302
304.000	1.93870	0.98014	-0.54564	0.14522
305.000	1.97622	1.00397	-0.55750	0.13726
306.000	1.98017	0.98806	-0.54761	0.14920
307.000	1.97029	0.94831	-0.55354	0.12334
308.000	1.95450	0.96820	-0.55354	0.13329
309.000	1.95845	0.96422	-0.55157	0.16313
310.000	1.97227	1.00397	-0.57529	0.13726
311.000	1.94857	1.00001	-0.56343	0.15119
312.000	1.98017	0.99005	-0.54564	0.15318
313.000	2.00386	0.99202	-0.57727	0.16511
314.000	1.95450	1.01193	-0.53773	0.11140
315.000	1.99399	0.98209	-0.56540	0.13925
316.000	1.98412	0.99005	-0.56738	0.10345
317.000	1.95845	0.97416	-0.54168	0.09549
318.000	1.95055	1.01591	-0.53575	0.10742
319.000	1.98807	0.96222	-0.57924	0.12931
320.000	1.97029	0.99204	-0.55157	0.09748
321.000	1.98807	0.98408	-0.54959	0.11936
322.000	1.96635	0.97416	-0.52191	0.08554
323.000	1.95845	0.98410	-0.51994	0.10146
324.000	1.97622	0.99005	-0.52191	0.10146
325.000	1.95450	0.99603	-0.56343	0.11140
326.000	1.93672	0.94237	-0.55750	0.09549
327.000	1.93672	1.00001	-0.54366	0.11339
328.000	1.97424	0.98608	-0.53180	0.11140
329.000	1.97622	0.99800	-0.55354	0.16114
330.000	1.97819	0.98806	-0.54761	0.10345
331.000	1.95647	0.97615	-0.53378	0.11538
332.000	1.97622	1.00397	-0.52587	0.11936
333.000	1.93475	0.92448	-0.54366	0.13329
334.000	1.93672	0.94436	-0.53378	0.08952
335.000	1.97622	0.96819	-0.52389	0.13727
336.000	2.00386	0.95625	-0.47645	0.11140
337.000	1.96042	0.95428	-0.51005	0.10146
338.000	1.97029	0.95030	-0.50808	0.13130
339.000	1.92685	0.97815	-0.51994	0.12931
340.000	1.97227	0.90259	-0.52982	0.12135
341.000	1.91105	0.93841	-0.48633	0.12334
342.000	1.92883	0.93641	-0.50412	0.16313
343.000	1.92290	0.93840	-0.49819	0.15915
344.000	1.90908	0.93046	-0.48238	0.14323
345.000	1.85773	0.90862	-0.49424	0.13727
346.000	1.84193	0.98417	-0.51994	0.18899
347.000	1.81033	0.94045	-0.52982	0.18302
348.000	1.73923	0.97627	-0.55947	0.13130
349.000	1.71158	0.93056	-0.58715	0.15517
350.000	1.67404	0.95443	-0.64052	0.15517
351.000	1.56145	0.94653	-0.69389	0.14721
352.000	1.48045	1.00423	-0.72947	0.17307
353.000	1.40932	1.02613	-0.77296	0.22677
354.000	1.37375	1.00626	-0.85005	0.19295
355.000	1.36585	1.03410	-0.94097	0.22477
356.000	1.33226	1.02815	-0.93899	0.24666
357.000	1.29867	0.99834	-0.94887	0.22676
358.000	1.34412	1.04206	-0.93109	0.26058
359.000	1.35202	0.99633	-0.95480	0.27450
360.000	1.38166	1.03807	-0.90342	0.26456
361.000	1.36585	0.99632	-0.87574	0.32623
362.000	1.42908	0.98636	-0.91132	0.33219
363.000	1.44093	1.02214	-0.85400	0.37596
364.000	1.48835	1.03405	-0.85005	0.37596
365.000	1.52786	0.99625	-0.84807	0.32026
366.000	1.49230	1.03802	-0.88958	0.36203
367.000	1.53576	0.99426	-0.88563	0.36999
368.000	1.53379	0.99625	-0.84610	0.33617
369.000	1.54169	1.03203	-0.84610	0.37795
370.000	1.56540	0.97238	-0.85993	0.33021
371.000	1.56540	0.97635	-0.84214	0.34214
372.000	1.55552	0.99823	-0.85203	0.30236
373.000	1.50415	0.96048	-0.83424	0.32623
374.000	1.52786	0.90480	-0.84017	0.28446
375.000	1.53576	0.99426	-0.85598	0.29042
376.000	1.53971	1.01016	-0.83424	0.26655
377.000	1.53576	0.99227	-0.85993	0.24666
378.000	1.51403	1.00819	-0.87970	0.30037
379.000	1.52786	0.98035	-0.86191	0.25064
380.000	1.52391	0.99625	-0.85400	0.28048
381.000	1.52786	1.00421	-0.88760	0.29639
382.000	1.53379	1.01414	-0.87772	0.24467
383.000	1.55354	1.05390	-0.84807	0.31827
384.000	1.57725	1.02406	-0.85796	0.25064
385.000	1.57132	0.95448	-0.87179	0.24666
386.000	1.56737	0.99822	-0.82633	0.26655
387.000	1.61281	1.02405	-0.89156	0.30434
388.000	1.57330	1.03003	-0.83621	0.27451
389.000	1.57725	1.04196	-0.84807	0.27451
390.000	1.54762	1.01414	-0.83819	0.28048
391.000	1.56540	1.06781	-0.83621	0.27849
392.000	1.60491	1.07375	-0.84214	0.26059
393.000	1.61281	1.05188	-0.83819	0.25462
394.000	1.59898	1.07176	-0.83819	0.29440
395.000	1.58120	1.03201	-0.87970	0.27849
396.000	1.59108	1.05189	-0.85598	0.19096
397.000	1.60096	1.03598	-0.86191	0.26058
398.000	1.61083	1.01808	-0.85005	0.27650
399.000	1.62861	1.05783	-0.83621	0.26258
400.000	1.61281	1.03001	-0.84214	0.28048
401.000	1.62466	1.08368	-0.89551	0.25660
402.000	1.61478	1.08170	-0.85598	0.22279
403.000	1.59503	1.04791	-0.85203	0.25860
404.000	1.58515	1.05587	-0.83424	0.28446
405.000	1.59305	1.07177	-0.86388	0.29241
406.000	1.55552	1.04992	-0.90342	0.26257
407.000	1.57527	1.04196	-0.87179	0.22677
408.000	1.57923	1.04593	-0.89353	0.23870
409.000	1.56342	1.09763	-0.85993	0.26059
410.000	1.56342	0.99027	-0.90539	0.24069
411.000	1.55749	1.01214	-0.84214	0.26854
412.000	1.55552	1.04395	-0.86981	0.25263
413.000	1.57330	1.06184	-0.85796	0.30037
414.000	1.58515	1.01412	-0.87179	0.33816
415.000	1.52391	1.04596	-0.81645	0.26457
416.000	1.56935	1.04196	-0.89749	0.31827
417.000	1.57923	1.06581	-0.89353	0.31827
418.000	1.52193	1.00421	-0.89156	0.26456
419.000	1.56935	0.97238	-0.85400	0.31628
420.000	1.53379	1.02011	-0.89156	0.27053
421.000	1.52193	0.96445	-0.87574	0.27650
422.000	1.54762	0.99028	-0.89156	0.24865
423.000	1.55157	0.97636	-0.88958	0.29838
424.000	1.61676	0.98826	-0.88167	0.33617
425.000	1.60491	0.94651	-0.88167	0.32424
426.000	1.58515	0.98827	-0.84214	0.31827
427.000	1.55749	0.99624	-0.85005	0.35209
428.000	1.58910	0.97833	-0.85796	0.30833
429.000	1.58120	0.93062	-0.86586	0.38789
430.000	1.57527	0.94653	-0.90934	0.33617
431.000	1.57527	0.96243	-0.88167	0.34612
432.000	1.60096	0.97833	-0.86388	0.35010
433.000	1.59305	0.97833	-0.83226	0.36005
434.000	1.62269	0.98627	-0.86191	0.36203
435.000	1.62664	1.01012	-0.82633	0.34015
436.000	1.63849	0.99222	-0.82831	0.34811
437.000	1.63651	0.99024	-0.85598	0.40579
438.000	1.66417	1.02402	-0.84017	0.34413
439.000	1.64046	0.94252	-0.84610	0.38789
440.000	1.64837	1.01607	-0.82238	0.36999
441.000	1.69577	0.98623	-0.85400	0.38391
442.000	1.66614	0.99022	-0.82633	0.39386
443.000	1.67207	1.01606	-0.84807	0.36999
444.000	1.64837	0.98824	-0.81645	0.36204
445.000	1.67207	1.02998	-0.82238	0.39187
446.000	1.65034	0.99619	-0.87179	0.31429
447.000	1.70762	1.01406	-0.83028	0.37596
448.000	1.66219	0.98227	-0.83819	0.38391
449.000	1.66614	1.02402	-0.78877	0.36403
450.000	1.63059	0.97831	-0.83028	0.36601
451.000	1.66022	1.00215	-0.82831	0.39585
452.000	1.66812	1.03396	-0.82435	0.33618
453.000	1.63059	0.98626	-0.85203	0.36999
454.000	1.56935	1.00617	-0.84214	0.34612
455.000	1.62269	1.03597	-0.82435	0.38392
456.000	1.61676	0.98229	-0.78877	0.37198
457.000	1.61478	0.99820	-0.80656	0.36204
458.000	1.61083	1.00218	-0.79668	0.36403
459.000	1.61281	1.01410	-0.82040	0.43166
460.000	1.61676	1.00019	-0.82435	0.39983
461.000	1.62664	1.04392	-0.79075	0.38392
462.000	1.59898	0.97236	-0.83226	0.40381
463.000	1.57330	0.98430	-0.80261	0.36800
464.000	1.59503	0.95845	-0.80261	0.33618
465.000	1.58515	0.96243	-0.78482	0.35010
466.000	1.59700	0.97038	-0.81052	0.37596
467.000	1.58318	0.97237	-0.79075	0.37795
468.000	1.58318	0.99225	-0.80261	0.39585
469.000	1.56540	0.97635	-0.81645	0.34214
470.000	1.59305	0.97634	-0.83424	0.37596
471.000	1.54959	0.94654	-0.81249	0.40580
472.000	1.52589	0.95251	-0.83226	0.37397
473.000	1.53379	0.96444	-0.81249	0.37994
474.000	1.61873	0.98428	-0.82238	0.36204
475.000	1.54564	0.97239	-0.82831	0.34015
476.000	1.53181	0.95251	-0.84214	0.37795
477.000	1.57725	0.98231	-0.80656	0.41375
478.000	1.57725	0.96442	-0.82435	0.37397
479.000	1.53774	0.97438	-0.81842	0.38789
480.000	1.56935	0.93460	-0.77691	0.39387
481.000	1.54959	0.99028	-0.84214	0.38192
482.000	1.56935	0.98033	-0.81645	0.37795
483.000	1.60096	0.99622	-0.78877	0.37198
484.000	1.55947	0.96642	-0.79668	0.37795
485.000	1.53576	0.95649	-0.82633	0.39585
486.000	1.56737	0.98431	-0.83226	0.36005
487.000	1.57132	0.95249	-0.84412	0.35010
488.000	1.55947	0.98232	-0.77889	0.40779
