time (ms)	lx (deg)	ly (deg)	rx (deg)	ry (deg)
0.000	10.64257	0.63084	8.15747	-0.18350
3.990	8.02881	0.40574	8.14516	0.63356
7.984	8.47240	-1.09270	8.57068	1.64813
11.984	10.60318	2.51839	7.85641	-0.53016
15.990	11.57555	0.41437	8.56401	-1.29534
19.984	7.54562	-0.16707	8.54066	0.59894
23.983	16.30572	-4.27556	8.05733	1.17005
27.981	11.14596	-0.52938	8.16464	0.39813
31.987	11.81168	-1.67781	8.77262	0.48332
35.983	13.42167	-4.19280	8.04037	0.63247
39.983	11.44940	-3.73696	8.03922	0.87572
43.999	11.76590	-0.49833	8.16099	0.65532
48.009	7.03289	-2.75629	8.41143	0.11101
51.988	11.20775	1.33360	8.29377	1.65393
55.981	11.83931	-0.11467	8.17782	0.64081
59.982	5.30882	0.15340	5.68892	1.42948
63.986	5.04740	1.61687	6.51175	2.15055
67.988	6.81512	0.04826	5.50887	-0.08293
71.985	-0.14434	2.01170	2.65079	1.69189
75.980	4.92698	0.27844	-0.39062	1.84578
79.988	-0.56511	1.32786	-0.17119	1.93605
83.988	-2.07668	1.46988	-0.34816	0.92804
87.987	-1.85251	0.20430	-0.67806	1.48912
91.987	-2.39393	0.64293	-0.35945	1.48880
96.015	4.63785	0.85542	2.46223	1.12443
99.982	-0.58669	1.48016	-0.49115	1.23658
103.981	-0.78746	1.76717	1.21777	1.33974
107.986	1.61143	3.67040	0.09654	1.05756
111.983	-1.28338	0.30154	-3.82292	0.18868
115.982	-0.65047	1.71519	-0.38918	1.28863
119.986	-1.06518	0.84692	-0.03159	0.97869
124.032	-1.02598	1.57898	-0.76431	1.18662
127.994	-0.79533	1.75994	-0.98308	1.70544
131.982	-1.35891	0.86909	-1.53838	1.29331
135.981	0.84920	0.61296	-1.54966	3.48627
139.981	-1.06279	0.58503	-0.39586	1.85757
143.985	1.92999	-0.14345	-1.38461	4.04671
147.981	-1.50847	-2.44370	-0.93242	1.28573
151.981	2.37746	0.10815	-4.10113	1.47191
155.979	-0.56803	-1.67825	-1.74918	1.54087
159.987	3.06328	0.44329	-1.29809	1.23626
163.983	-1.73519	-2.37189	-1.84019	2.65083
167.986	2.62137	-0.44730	-1.69319	1.23713
172.009	-1.27133	-1.35263	-1.55951	1.99764
175.990	0.77414	-1.13379	-0.84702	1.13225
179.980	0.78779	-1.50338	-0.70092	3.62839
183.979	1.07530	-0.83644	-0.81769	1.81918
187.984	-0.64067	-0.47465	-1.21462	2.55285
192.034	-0.43031	0.24672	-1.34718	1.90344
195.990	-0.44321	-1.76505	-1.63881	2.55412
199.978	-0.30061	-0.07378	-1.78788	1.91623
203.985	3.07520	-1.69319	-1.35340	1.95408
207.982	-0.12302	-1.15682	-1.86754	-0.26808
211.984	3.17131	-0.02092	-1.21038	2.07676
215.978	-0.25296	-0.48556	-1.31726	1.38254
219.985	-0.35561	0.35551	-1.14866	1.55521
223.981	-0.43971	-0.14877	-1.46983	1.38536
227.981	-0.74895	0.60249	-0.95765	1.63711
231.979	-0.64044	0.27926	-1.35965	1.21155
235.985	-0.64069	0.88359	-0.98050	3.61014
239.982	-0.55143	0.55961	3.39742	-1.76415
243.979	-0.82061	1.84623	-1.04940	2.59091
247.983	-1.14027	1.18746	-1.38478	2.74786
251.990	-0.52982	1.16221	-1.34234	4.33485
255.979	0.04981	0.01073	0.38700	1.82384
260.010	-0.05869	-0.44974	-1.35298	2.29338
263.988	-0.09761	0.07606	-1.88653	1.96763
267.978	-0.38978	-0.39012	-0.82707	2.23813
271.984	0.19010	-0.04204	-3.65440	1.67802
275.979	-0.59590	-0.37420	-1.42935	2.17112
280.003	0.23254	-0.33148	-0.39464	1.94246
283.988	-0.75898	-0.38639	-0.73928	1.93272
287.978	-0.52111	-0.29663	-0.82310	1.55144
291.986	-0.02365	-0.43088	-0.48505	1.48852
295.985	3.51112	-0.49085	0.18655	1.91048
299.988	-0.21738	-0.29476	0.81903	1.30539
303.981	1.50534	-0.28273	1.52216	1.58255
308.011	2.09861	-0.34035	0.03976	1.53096
311.976	0.38057	-0.13060	0.80421	1.08900
315.981	0.51416	-0.06699	1.02144	0.89366
319.981	1.90666	-0.11099	0.62141	1.54858
323.978	1.49274	-0.00020	0.03914	1.21512
327.998	1.95780	0.32486	1.02508	1.23494
331.988	1.02419	-0.03916	0.46592	0.91697
335.985	2.85643	2.23945	1.01915	0.20443
339.984	5.12058	-0.33514	1.18569	0.17125
343.977	-0.60811	-0.39592	0.56692	0.68686
347.980	1.57436	-0.16106	1.48089	0.77226
351.979	1.62564	-0.23840	0.34665	0.96816
355.976	1.89089	0.15696	-0.39469	1.20090
359.983	0.89905	-0.26563	0.82272	0.92555
363.979	1.46683	-0.41625	-0.30185	0.75220
367.978	2.44071	-0.69367	0.31521	1.30622
371.977	2.43159	-0.41917	0.41271	1.21223
375.985	2.69767	-0.69512	0.15578	1.18580
379.980	1.23779	-0.66776	0.09937	1.47566
383.979	2.36780	-0.08960	-0.18725	1.51993
387.973	2.69572	-0.93641	-0.01504	0.90115
391.978	2.75876	-0.83902	0.32091	1.28424
395.979	1.06570	0.29533	0.34556	1.16187
399.980	1.93519	0.07038	-0.16645	0.75937
403.980	3.21429	-0.91782	0.38923	1.08960
407.976	1.40430	-1.50302	0.28438	0.83372
411.980	1.28792	4.17124	0.45999	0.70240
415.979	2.56572	0.02902	0.36643	0.46379
419.982	3.08518	-0.89139	0.44314	0.25477
423.976	1.91506	-0.30125	0.36650	0.62169
427.980	1.67544	0.62640	0.46808	0.25169
431.975	1.43081	0.55015	0.48086	0.36454
435.975	-2.30058	-5.11318	0.50895	0.16708
439.981	1.21278	-1.47777	0.18504	0.16455
443.978	-0.88915	1.11265	0.26155	0.31933
447.976	3.73149	1.15509	0.43728	0.15138
451.976	3.13895	1.87409	0.53964	0.10024
455.980	2.21430	-1.09284	0.51260	0.09204
459.981	2.98636	-4.16514	0.10664	0.10454
463.993	0.86873	-1.64288	-0.05036	0.26390
467.982	1.31369	-1.76878	0.48736	0.19702
471.978	1.71640	-2.12528	0.56225	0.27787
475.978	2.73947	-1.71207	0.28322	0.37337
479.973	1.89451	-1.71577	0.39869	0.41285
483.849	0.87272	-3.43909	0.09389	0.48698
487.850	0.54739	-1.95751	0.05812	0.86727
491.855	1.32081	-1.35811	0.37000	0.77133
495.850	3.16203	-1.88694	0.09150	0.95737
499.850	2.69896	-2.80879	0.08455	0.85743
503.855	2.24490	-3.11301	-0.03690	0.97538
507.857	2.24027	-0.99961	1.25857	0.92406
511.857	0.44917	-0.83264	0.14149	0.77440
515.850	2.26202	-2.88583	-0.05852	0.48417
519.850	1.72567	-3.23510	-0.08713	0.24198
523.850	0.88413	-2.56708	-0.16191	0.48194
527.855	0.78302	-2.72032	0.00591	0.14507
531.897	0.28510	-1.25618	0.23567	0.52648
535.857	0.33692	-2.86114	-0.30942	1.25494
539.851	-1.29171	-0.42143	-1.40155	2.15085
543.851	0.10761	-1.37489	-0.64905	0.06194
547.856	-1.70291	-0.62334	-3.57184	0.86722
551.851	-4.70670	2.32474	-4.70175	2.67605
555.851	-1.97986	0.74891	-4.01611	1.73372
559.846	-2.61875	2.53939	-5.34744	2.17078
563.853	-3.30544	-0.46320	-5.31229	2.82147
567.848	-4.14396	0.41860	-5.10689	3.73813
571.850	-3.20699	-0.08403	-4.99999	3.46855
575.849	-4.09189	0.56329	-5.02415	2.83295
579.853	-6.34724	2.02958	-5.22362	2.96503
583.851	-5.38494	2.45268	-5.82707	2.37334
587.849	-6.81918	3.75216	-4.56461	2.87219
591.879	-2.42807	0.57924	-4.97556	2.94969
595.849	-3.05845	0.82723	-5.31120	3.52464
599.880	-3.33040	1.91086	-5.88415	3.91520
603.856	-3.76141	3.45112	-5.85991	2.53857
607.844	-3.54279	3.66203	-5.52598	3.27207
611.853	-4.18968	0.57737	-4.82116	2.99850
615.850	-4.78952	0.71629	-5.09064	3.02660
619.845	-3.24417	0.48015	-6.45461	4.02642
623.851	-3.58536	2.00255	-6.34292	2.79073
627.850	-4.72053	3.36556	-5.79099	2.98023
631.853	-3.86420	1.46532	-5.75018	3.36989
635.847	-5.21343	1.03008	-5.88564	3.86241
639.852	-5.38717	1.32369	-6.37047	4.52711
643.848	-5.56871	2.72636	-5.75991	2.78478
647.848	-4.30539	0.66838	-5.08409	3.25247
651.845	-4.52555	0.57431	-5.14490	4.11898
655.852	-3.35691	1.43250	-6.55440	4.50714
659.848	-5.22613	1.07892	-6.61509	2.64528
663.849	-5.65027	3.04294	-5.77858	3.02256
667.877	-4.95021	1.88898	-6.16280	4.28962
671.865	-5.87255	1.26189	-6.72820	3.27879
675.850	-6.21034	2.05330	-5.65943	3.00183
679.846	-5.66111	1.02076	-5.11519	3.91657
683.853	-5.90909	1.81408	-5.65056	4.56777
687.850	-4.65932	2.12797	-6.07228	2.81553
691.844	-3.85437	1.58919	-6.05550	3.95458
695.852	-4.36464	2.07920	-6.23734	4.60070
699.849	-6.43042	2.13442	-5.84667	2.35895
703.849	-6.30002	1.99732	-6.23979	3.45118
707.844	-6.49925	1.54681	-5.57259	4.45308
711.851	-4.32471	1.80147	-6.02178	3.96673
715.867	-5.04405	2.11030	-5.59568	2.50323
719.853	-4.62118	1.66270	-6.08446	3.97296
723.843	-6.06205	1.42669	-5.87614	4.77527
727.850	-5.85961	1.83500	-4.83072	3.99049
731.852	-5.07791	1.81821	-5.83233	2.74085
735.850	-4.33606	1.76389	-5.66393	3.73865
739.854	-5.83586	1.41695	-5.64894	4.08646
743.881	-6.12480	1.72509	-5.65961	4.30753
747.847	-6.29185	1.88017	-5.64255	4.45555
751.844	-5.22512	1.70474	-5.77109	3.86908
755.854	-4.89286	1.24479	-5.82464	3.20631
759.847	-5.24279	1.47056	-5.65912	3.32902
763.846	-5.69794	2.41138	-5.53505	3.08045
767.843	-4.87527	1.51890	-5.80685	3.08613
771.848	-5.57031	1.88421	-5.67944	3.28693
775.847	-5.89124	2.11213	-5.87550	3.13906
779.847	-6.11508	2.00395	-5.50395	3.28678
783.842	-2.81236	0.52233	-5.92940	3.48932
787.849	-5.42228	0.42544	-5.95663	3.75328
791.844	-5.45191	0.52982	-5.61465	3.62268
795.850	-5.13806	1.66066	-5.72379	3.43346
799.853	-5.68981	0.68841	-5.58238	3.31701
803.882	-10.60217	1.61421	-6.14688	3.14607
807.847	-6.43307	1.83155	-5.63124	0.85505
811.843	-6.67747	2.08779	-8.99661	3.78339
815.845	-10.46268	1.92596	-9.82361	3.56659
819.850	-10.61452	1.20832	-9.89111	3.06964
823.846	-10.26093	1.62534	-11.17694	2.13130
827.848	-7.34011	0.44344	-11.38664	3.85003
831.849	-10.75656	1.63627	-11.36353	3.51987
835.845	-11.33488	0.91228	-10.98042	2.22973
839.848	-10.46777	0.36589	-11.00443	3.10650
843.844	-11.60461	0.35306	-11.44165	3.68353
847.847	-11.42368	0.09270	-11.27526	3.06583
851.845	-11.70892	0.70594	-11.45002	2.36308
855.846	-11.43448	0.97344	-11.39613	3.98492
859.852	-11.37111	0.75460	-11.50301	3.42008
863.847	-10.20462	0.53237	-11.88311	2.81547
867.844	-11.09059	2.33395	-11.42897	2.42761
871.872	-10.42307	1.10725	-11.47059	3.65260
875.844	-11.87803	0.83655	-11.45338	3.78320
879.855	-11.68860	0.71139	-11.32700	3.46296
883.848	-11.18551	0.74000	-11.54656	2.87551
887.843	-8.55253	0.05182	-11.19932	2.48588
891.850	-10.62461	0.21082	-11.48651	2.50359
895.845	-11.02708	1.32918	-11.52822	3.97114
899.844	-10.95155	1.35739	-11.39158	3.45347
903.847	-11.91778	1.61275	-11.49216	3.38685
907.841	-11.21916	1.94189	-11.52984	3.12599
911.843	-11.43464	1.47895	-11.50942	2.95054
915.847	-11.12362	1.52990	-11.57567	2.72593
919.844	-10.95323	1.53329	-11.47209	3.06333
923.848	-10.92464	0.89371	-11.43843	3.25719
927.851	-10.79459	1.31505	-11.88729	3.50104
931.845	-10.79413	1.65543	-11.75443	3.73570
935.845	-11.07224	1.03629	-11.73041	3.47682
939.853	-10.74022	1.40034	-11.65056	3.39214
943.850	-10.62696	1.02692	-11.61585	3.44709
947.845	-10.32373	1.11921	-11.62963	3.14046
951.845	-10.76808	0.26191	-11.52002	3.39358
955.842	-10.78786	1.14263	-11.45100	2.62378
959.847	-11.64599	0.85224	-11.52774	3.20488
963.849	-10.49440	0.78949	-11.67139	3.45700
967.873	-10.01169	0.87280	-11.92928	4.73272
971.843	-10.53447	0.96772	-11.61006	3.61273
975.845	-10.48377	0.83931	-11.61761	3.80084
979.844	-9.30167	0.93814	-11.77299	4.33062
983.859	-10.37045	1.01321	-11.50236	3.88627
987.846	-10.59529	0.95905	-12.16342	3.22975
991.848	-11.07350	0.88094	-11.49045	3.93738
995.842	-9.92230	0.79711	-11.47479	3.95854
999.842	-9.88613	1.49327	-13.01279	3.76558
1003.839	-11.30324	2.01869	-11.42050	3.54928
1007.865	-10.51192	1.64798	-11.28524	3.61912
1011.847	-10.28203	0.74996	-11.26772	3.21298
1015.842	-10.10918	1.92322	-11.37061	3.58162
1019.843	-11.12503	1.12544	-11.17952	3.39827
1023.844	-11.18262	1.90045	-11.11838	3.33457
1027.846	-11.56374	1.74138	-11.23368	2.71199
1031.846	-11.17861	2.12987	-11.17904	3.34692
1035.843	-10.39465	1.95784	-11.07534	2.96784
1039.840	-11.05256	2.79278	-7.72454	2.43866
1043.845	-10.70471	2.37000	-10.91298	2.29109
1047.847	-10.24557	2.03136	-11.17455	2.53328
1051.840	-10.61229	0.38526	-11.42194	2.58776
1055.844	-10.35003	1.09578	-11.09776	3.10539
1059.840	-9.54242	2.12721	-10.68854	2.41705
1063.839	-11.24096	1.39395	-11.19363	2.80303
1067.847	-8.45247	2.10071	-11.09520	2.48373
1071.842	-8.96499	2.93940	-10.96913	2.48932
1075.847	-10.45610	2.07968	-11.40865	2.41174
1079.841	-10.89803	3.28504	-12.55848	2.70812
1083.840	-12.15645	3.59147	-13.13503	2.64185
1087.850	-14.65395	1.65696	-12.21234	2.81675
1091.843	-12.16292	1.34994	-12.66431	3.53481
1095.840	-11.01524	1.47803	-13.11314	3.66578
1099.844	-11.40386	1.63076	-13.24405	4.21054
1103.842	-12.34787	1.66034	-12.66977	4.09943
1107.841	-12.27434	1.79219	-11.51895	2.75572
1111.847	-14.00125	1.69070	-12.99960	2.14484
1115.843	-13.62591	1.49376	-12.41445	2.53403
1119.839	-12.37598	1.65965	-12.60091	2.14690
1123.837	-11.69359	1.05911	-12.70711	2.72155
1127.846	-11.43162	1.59504	-12.90404	2.63669
1131.845	-11.40746	1.53798	-12.88006	2.54844
1135.844	-11.84328	1.66964	-12.88279	2.87173
1139.839	-11.90756	2.58581	-12.57377	2.86739
1143.867	-12.54864	2.98754	-12.78089	3.13568
1147.848	-12.26455	1.91883	-12.93915	3.51664
1151.840	-11.60842	1.06511	-12.96800	3.47958
1155.840	-12.23922	1.69235	-13.04980	3.35542
1159.845	-12.27332	1.93465	-13.22029	3.40435
1163.843	-12.21241	1.84421	-13.38914	3.44756
1167.873	-12.12756	1.76139	-13.35285	3.39823
1171.843	-12.18372	1.74648	-13.26493	3.56235
1175.846	-12.30083	1.86188	-13.14327	3.56314
1179.837	-13.27835	2.24989	-12.90515	3.71933
1183.836	-12.80966	0.84184	-13.02288	3.76234
1187.842	-12.50572	1.51236	-13.10742	3.81778
1191.838	-13.22072	1.72697	-12.84442	3.77067
1195.838	-13.50056	0.87126	-12.66483	3.89863
1199.842	-12.98857	1.28869	-12.69970	4.02809
1203.839	-13.30830	1.02931	-12.66592	3.98756
1207.840	-12.57044	1.32810	-12.62029	4.01018
1211.992	-13.67782	1.18771	-12.52251	3.84124
1215.845	-13.15875	1.39483	-12.54325	3.73871
1219.837	-13.50720	1.20301	-12.60963	3.97470
1223.836	-13.39992	1.34784	-12.68550	3.95676
1227.841	-13.39182	1.30007	-13.01381	3.88888
1231.838	-13.06344	1.37771	-12.77896	3.82794
1235.842	-13.47395	1.26673	-12.88596	3.80608
1239.843	-12.81261	1.36900	-13.00410	3.77379
1243.838	-12.45083	1.50276	-13.25174	3.70769
1247.838	-13.59891	1.41882	-12.97559	3.65156
1251.836	-13.41951	1.24344	-13.07568	3.55203
1255.845	-13.65702	1.20845	-13.06982	3.69241
1259.840	-14.04629	2.03395	-12.85102	3.77668
1263.839	-13.83767	1.57844	-13.09704	3.69484
1267.836	-14.52567	3.31184	-13.05305	3.61831
1271.841	-13.73643	2.70897	-12.99647	3.59029
1275.839	-15.23646	4.86391	-13.07535	3.60298
1279.861	-15.48119	4.71319	-13.14917	3.65112
1283.841	-13.15715	1.73574	-13.24927	3.64255
1287.836	-14.13493	2.56005	-13.24456	3.34553
1291.837	-14.01627	2.47439	-13.27631	3.70570
1295.843	-13.84230	1.63318	-13.31601	3.76253
1299.842	-12.32025	1.72079	-13.35287	3.78627
1303.840	-12.36537	1.63265	-13.30830	3.71422
1307.836	-13.22709	1.48773	-13.18847	3.73202
1311.836	-13.24901	1.22260	-13.15717	4.01325
1315.839	-11.64430	2.09739	-13.29429	3.99131
1319.839	-12.08407	2.21900	-13.22780	4.00889
1323.839	-12.13989	2.45314	-13.16805	4.35843
1327.838	-11.70590	2.35662	-13.04857	4.22845
1331.840	-11.35017	2.27021	-12.49306	4.58135
1335.838	-9.19967	1.81372	-12.76244	4.45178
1339.713	-11.21508	1.47200	-10.70025	4.02414
1343.716	-12.93740	2.82175	-11.36992	4.09471
1347.734	-11.70376	2.57799	-10.36187	4.46940
1351.714	-12.99677	2.83342	-12.52641	4.29570
1355.714	-13.75090	2.47802	-12.55890	3.92945
1359.709	-13.61358	3.29354	-12.62632	3.67211
1363.715	-12.39442	3.38505	-12.42456	3.78804
1367.714	-12.46969	3.49847	-12.65444	3.64942
1371.713	-12.91218	4.29537	-12.75186	3.44063
1375.711	-11.52815	3.04585	-12.77412	3.52643
1379.710	-12.31049	3.43507	-12.73606	3.43027
1383.720	-11.80397	3.08898	-12.69781	3.54862
1387.782	-11.46892	2.76387	-12.78800	3.54767
1391.718	-11.71511	2.99154	-12.77459	2.98763
1395.714	-11.44907	2.83437	-12.78455	2.95271
1399.709	-11.52672	2.71780	-12.90265	2.69846
1403.708	-11.48020	2.65413	-12.84980	3.21306
1407.707	-11.64830	3.20750	-12.82144	3.11165
1411.713	-11.21732	2.98256	-12.69167	3.33564
1415.733	-11.32027	3.81905	-12.61159	3.45695
1419.715	-11.18100	2.53244	-12.47693	3.56119
1423.713	-11.17625	2.13661	-12.58051	3.65743
1427.720	-10.95815	2.24609	-12.46694	3.89675
1431.707	-11.02560	2.20895	-12.40995	4.08211
1435.714	-11.05443	2.23068	-11.37278	3.58104
1439.712	-11.34127	2.21463	-9.75690	3.95899
1443.710	-11.38204	2.03305	-9.85664	4.15612
1447.708	-11.50446	2.07757	-9.61576	4.21352
1451.711	-11.43305	2.30464	-12.19892	3.89717
1455.711	-11.69552	2.59106	-12.04531	4.11575
1459.709	-11.53548	2.54439	-12.64744	4.13701
1463.706	-11.45336	2.64716	-12.57786	4.03227
1467.718	-11.50503	2.44427	-12.57077	4.06211
1471.709	-11.65646	2.84816	-12.45918	4.20041
1475.709	-13.31509	3.29629	-12.87596	2.87350
1479.708	-11.82656	3.19382	-12.72775	2.89924
1483.712	-11.94888	3.24672	-12.66072	3.79018
1487.718	-11.57984	3.12456	-12.55606	3.92327
1491.710	-11.62151	3.27802	-12.58843	3.82121
1495.708	-11.15281	3.64127	-12.49050	3.92525
1499.711	-12.39977	3.37833	-12.40171	3.86274
1503.711	-11.24884	3.16404	-12.35732	4.54912
1507.708	-10.77761	2.81681	-5.68433	4.93736
1511.717	-10.15783	2.98887	-8.15263	5.27744
1515.709	-8.98615	3.70512	-6.66922	5.61436
1519.707	-5.61116	4.97448	-5.75883	6.00130
1523.713	-5.90011	4.92798	-4.29256	8.92413
1527.709	-4.87739	5.19289	-4.81604	7.12696
1531.710	-4.61701	4.58753	-4.63689	6.13068
1535.706	-4.80551	4.47303	-4.72933	5.97704
1539.711	-4.83474	5.05947	-4.73337	5.11038
1543.709	-4.77158	3.98208	-4.57855	5.78290
1547.706	-4.59729	4.15462	-4.40599	5.95594
1551.715	-4.57608	4.35398	-4.45024	5.77628
1555.711	-4.45922	4.41199	-4.51662	5.86403
1559.708	-4.40882	4.49331	-4.43983	5.79034
1563.705	-4.22372	4.14904	-4.36123	5.97319
1567.712	-3.99126	4.16149	-4.75115	5.97142
1571.709	-4.11016	4.10084	-5.70627	6.35408
1575.712	-3.64392	4.01844	-5.43042	5.93645
1579.707	-3.75603	3.99106	-5.39984	6.05848
1583.712	-3.74024	3.98035	-5.21668	6.08741
1587.707	-3.98326	4.04604	-5.06681	6.11428
1591.711	-4.00247	4.19595	-5.06838	6.13778
1595.721	-3.85128	4.24248	-4.94504	6.23639
1599.708	-4.05066	4.09315	-5.01406	6.36690
1603.708	-4.13552	4.16341	-5.11696	6.48487
1607.711	-4.22942	4.57973	-5.12011	6.63462
1611.706	-4.31326	4.80695	-5.06003	6.62622
1615.707	-4.20978	4.90097	-5.00992	6.83442
1619.727	-4.23268	4.89130	-5.08793	7.04287
1623.707	-4.30304	4.98321	-5.04775	6.94620
1627.710	-4.32437	5.15615	-5.05787	7.22352
1631.707	-4.37359	5.21693	-5.00095	7.33655
1635.712	-4.50027	5.36150	-4.78218	7.05867
1639.703	-4.60964	5.32123	-4.88232	7.02637
1643.709	-4.93940	5.45709	-4.88776	4.76525
1647.705	-4.88705	5.64326	-4.69901	4.79765
1651.706	-4.84112	5.72406	-4.89892	4.84067
1655.705	-5.13796	5.60446	-4.66802	5.33462
1659.710	-5.03533	5.00148	-4.72475	5.12944
1663.706	-5.11359	4.95310	-4.67133	5.60286
1667.705	-4.77954	4.84482	-4.85593	6.05384
1671.703	-4.55184	3.03186	-4.39030	5.45981
1675.720	-4.58266	4.84610	-4.60592	6.30269
1679.708	-4.64226	5.07797	-5.74566	5.89211
1683.704	-4.92893	4.63999	-5.42011	5.48196
1687.724	-4.57830	5.24815	-5.09236	5.47811
1691.709	-4.59164	5.16198	-5.09490	5.66682
1695.709	-4.65986	4.37809	-4.93102	5.89014
1699.704	-4.48991	3.95620	-4.72896	5.92714
1703.710	-4.56597	4.64158	-4.55869	5.89280
1707.705	-4.56397	5.46956	-4.86372	5.94491
1711.703	-4.26301	3.98605	-4.97191	6.69952
1715.709	-3.41474	4.34289	-4.80394	4.47269
1719.711	-4.70170	4.65765	-4.62308	5.89880
1723.709	-4.62419	5.35289	-4.61420	6.17972
1727.703	-4.49506	5.43279	-4.74890	4.24033
1731.708	-4.55147	4.22666	-4.71052	6.09395
1735.707	-4.31669	4.86258	-4.53963	8.19854
1739.704	-4.36404	4.67692	-0.66044	6.63782
1743.709	-1.26200	5.02415	1.09745	6.32751
1747.706	2.10466	5.35449	3.07511	6.08478
1751.705	2.65141	4.79985	4.14702	4.15470
1755.736	5.65565	4.28498	5.90507	4.17818
1759.717	7.93162	-0.33080	7.01487	4.00826
1763.703	9.32383	-1.61829	7.94119	4.03523
1767.708	6.57382	0.30074	8.09516	3.80821
1771.706	6.15134	0.37422	8.24047	3.81449
1775.704	7.54293	0.48028	8.04879	3.66028
1779.702	8.90056	0.19593	8.20415	3.08512
1783.708	8.75087	0.39386	8.71843	3.22502
1787.705	8.52901	-0.04504	8.29008	2.12096
1791.702	8.57066	-0.00315	8.28425	1.84451
1795.708	8.72840	-0.54097	8.33314	2.75950
1799.703	8.78450	-0.76741	8.16299	2.62560
1803.710	9.13255	-0.82243	8.19832	2.53802
1807.709	8.87341	-1.57901	8.03480	2.22482
1811.707	8.75931	-0.56774	7.96062	1.85315
1815.721	8.66292	-0.37118	7.93184	2.40150
1819.700	8.42034	-0.01330	7.88782	2.38151
1823.732	8.28245	-0.92691	7.71572	2.57224
1827.712	8.28933	-5.93725	7.73333	2.37686
1831.705	8.83881	-0.62630	7.79919	2.33232
1835.703	8.30471	-0.28685	7.74642	2.48624
1839.701	8.33076	0.29295	7.80341	2.33756
1843.709	7.97101	0.90362	7.72863	2.48600
1847.719	8.21390	0.70429	7.58573	2.44100
1851.707	8.29598	0.34338	7.63462	2.52305
1855.699	8.52710	-0.15605	7.60070	2.59609
